#Aperture Area(sr) = 3.31471117220872e-08 #Extraction Rectangle:
# Box: 13:13:26.795,+36:35:26.84 ; 13:13:28.088,+36:35:24.07
#      13:13:28.450,+36:35:48.54 ; 13:13:27.157,+36:35:51.32
#   WAVELENGTH    |      FLUX       | FLUX_UNCERTAINTY |
#      real       |      real       |       real       |
#       um        |     MJy/sr      |      MJy/sr      |
         9.966622          18.79483           1.180198
         9.974653          16.48669           1.350125
         9.982685          18.64791           1.357929
         9.990716          20.69160           1.199902
         9.998747          18.78131           1.203423
         10.00678          16.72737           1.348658
         10.01481          20.47605           1.233644
         10.02284          18.60267           1.209587
         10.03087          19.80938           1.245108
         10.03889          22.08642           1.472926
         10.04692          17.53301           1.151668
         10.05495          18.86125           1.069304
         10.06298          20.49262           1.052213
         10.07101          20.79733           1.112674
         10.07904          17.95735           1.017399
         10.08706          17.79385           1.007033
         10.09509          19.63233           1.233585
         10.10312          20.80063          0.9923437
         10.11114          19.06667          0.8279995
         10.11917          17.70467           1.000983
         10.12720          19.20915           1.034263
         10.13522          19.89963          0.9235007
         10.14325          18.00111          0.9108747
         10.15127          19.92730           1.097053
         10.15930          18.70443           1.025209
         10.16732          18.79406          0.8617287
         10.17534          17.22016           1.025268
         10.18337          18.20613           1.041880
         10.19139          18.10935          0.9668751
         10.19942          19.20236          0.9776359
         10.20744          17.51011           1.098898
         10.21546          19.43355           1.038720
         10.22348          18.65190          0.9591624
         10.23150          19.81478           1.040034
         10.23953          19.62654           1.104636
         10.24755          19.93294           1.018162
         10.25557          20.24760           1.073498
         10.26359          19.58183           1.157625
         10.27161          19.94539           1.178065
         10.27963          19.41730           1.095721
         10.28765          19.86800           1.118063
         10.29567          19.22831           1.160743
         10.30369          19.30870           1.205679
         10.31171          19.97958           1.181229
         10.31973          19.73340           1.263062
         10.32774          18.49961           1.425623
         10.33576          16.86046           1.421894
         10.34378          16.25794           1.373582
         10.35180          15.92777           1.487793
         10.35982          17.70023           1.505246
         10.36783          20.05677           1.266627
         10.37585          18.51556           1.353643
         10.38387          19.13956           1.484586
         10.39188          20.15118           1.459778
         10.39990          19.52304           1.395422
         10.40791          20.43086           1.182887
         10.41593          17.69079           1.179326
         10.42394          17.07032           1.139617
         10.43196          21.05849           1.081059
         10.43997          19.75111           1.170443
         10.44798          19.32895           1.149971
         10.45600          19.44541           1.138930
         10.46401          20.12264           1.232521
         10.47202          20.15193           1.319797
         10.48004          20.85013           1.353612
         10.48805          21.09490           1.371447
         10.49606          20.05167           1.442966
         10.50407          20.01133           1.373482
         10.51208          22.09789           1.742101
         10.52010          21.10315           1.605308
         10.52811          22.84827           1.403851
         10.53612          25.36328           1.529173
         10.54413          26.97182           1.458211
         10.55214          25.57357           1.618283
         10.56015          22.48332           4.395514
         10.56043          24.96166          0.9534025
         10.56887          24.78112           1.147477
         10.57732          23.46649           1.069101
         10.58576          26.20715          0.9792080
         10.59420          25.14244           1.003629
         10.60265          25.86739          0.9324237
         10.61109          24.09202           1.025858
         10.61953          26.57485           1.003867
         10.62797          26.06074          0.9275076
         10.63642          25.62497          0.9813826
         10.64486          27.14209          0.9666544
         10.65330          24.26294          0.9360448
         10.66174          22.97429          0.9650437
         10.67018          22.18821          0.9863478
         10.67862          25.92883           1.092247
         10.68706          25.41278          0.9450419
         10.69550          23.54190          0.9194973
         10.70394          24.49397          0.9795506
         10.71238          24.71664           1.012978
         10.72082          24.80967          0.9302593
         10.72926          25.38194          0.9758349
         10.73769          23.23739           1.024709
         10.74613          26.84686          0.9786867
         10.75457          26.50806          0.9347506
         10.76301          27.47357          0.9181398
         10.77144          26.16713          0.9330761
         10.77988          25.96456          0.9353843
         10.78832          26.81617          0.9615901
         10.79675          26.55385          0.9971295
         10.80519          24.58737           1.142797
         10.81362          24.06788           1.070633
         10.82206          24.06356           1.044982
         10.83049          23.16714           1.092084
         10.83893          24.85975           1.179460
         10.84736          24.13774           1.289621
         10.85579          23.83029           1.397070
         10.86423          24.90588           1.481228
         10.87266          23.32559           1.217315
         10.88109          23.84575           1.317278
         10.88952          24.41123           1.565868
         10.89796          23.85850           1.583169
         10.90639          24.97876           1.732141
         10.91482          24.92918           1.663953
         10.92325          26.60034           1.546547
         10.93168          25.35503           2.159560
         10.94011          25.55442           1.890657
         10.94854          30.05482           1.847142
         10.95697          29.62422           2.009588
         10.96540          25.98646           1.435692
         10.97383          29.78503           1.267186
         10.98226          30.79573           1.230535
         10.99068          29.60148           1.490664
         10.99911          30.79699           1.183959
         11.00754          32.46931          0.8929264
         11.01597          35.70101           1.744072
         11.02439          37.53127           1.675978
         11.03282          38.41162           1.280730
         11.04125          36.70747           1.794726
         11.04967          34.97295           1.704091
         11.05810          36.39933           1.285048
         11.06652          38.11434           1.179018
         11.07495          36.12290           1.082564
         11.08337          33.01419           1.132343
         11.09180          30.91586           1.295351
         11.10022          34.39193           1.421413
         11.10865          34.13614           1.280742
         11.11707          33.99935           1.714960
         11.12117          34.87970           1.128059
         11.13008          37.07510           1.123302
         11.13898          38.18792           1.111158
         11.14789          39.38018           1.144864
         11.15679          43.49779           1.107408
         11.16570          46.88697           1.031260
         11.17460          49.02345          0.9840242
         11.18351          56.69626           1.048657
         11.19241          64.19824           1.028297
         11.20131          76.26907          0.9843895
         11.21022          87.37511           1.016898
         11.21912          104.0435          0.9753195
         11.22802          112.5604           1.016618
         11.23693          115.2447          0.9428533
         11.24583          114.7184          0.9762318
         11.25473          114.2662           1.019585
         11.26363          113.7934          0.9741841
         11.27253          115.8354          0.9673763
         11.28143          113.5812          0.9020680
         11.29033          112.6481          0.9603136
         11.29923          111.2313           1.002173
         11.30813          110.9805          0.8703923
         11.31703          108.9324          0.8978405
         11.32592          105.6375          0.9314192
         11.33482          100.2075          0.9033399
         11.34372          95.38465           1.016173
         11.35262          91.21793          0.9282092
         11.36151          86.70320          0.9487917
         11.37041          80.64172          0.9805004
         11.37931          81.25723          0.8911409
         11.38820          80.65772          0.8471315
         11.39710          78.65034          0.9548786
         11.40599          75.48011          0.9566545
         11.41489          73.92352          0.9100565
         11.42378          70.89870          0.9133157
         11.43268          70.53229          0.9853768
         11.44157          70.83337          0.9110457
         11.45046          66.58848          0.8449481
         11.45936          64.49912          0.8885126
         11.46825          64.46848          0.9207251
         11.47714          63.59950          0.9918117
         11.48603          62.48767          0.8916643
         11.49492          58.82507          0.8650064
         11.50381          58.20419           1.084539
         11.51270          55.16167           1.036179
         11.52160          57.04912           1.008448
         11.53048          53.64833          0.9611027
         11.53937          55.88260           1.068365
         11.54826          54.24173           1.079259
         11.55715          51.13435           1.023750
         11.56604          50.57164           1.102619
         11.57493          48.19898           1.190439
         11.58382          48.58207           1.246063
         11.59270          48.82432           1.123237
         11.60159          49.41126           1.125467
         11.61048          49.78207           1.178349
         11.61936          50.81596           1.244523
         11.62825          49.51963           1.333266
         11.63713          46.51288           1.351677
         11.64602          46.93231           1.412859
         11.65491          41.83889           1.521679
         11.66379          42.16128           1.277314
         11.67267          41.47415          0.9491396
         11.68156          40.17694           1.011462
         11.69044          42.32971           1.027727
         11.69932          42.04232           1.067906
         11.70821          41.90647           1.028891
         11.71709          40.73952           1.075475
         11.72597          41.92941           1.218628
         11.73485          39.87596           1.211812
         11.74373          40.42397           1.327344
         11.75261          39.08698           1.338479
         11.76149          37.56210           1.358966
         11.77037          38.07821           2.211931
         11.77501          38.18067           1.005805
         11.78443          36.78637           1.074133
         11.79385          37.28345           1.068053
         11.80327          37.96269           1.000858
         11.81269          37.91331          0.9006649
         11.82210          39.66188           1.048460
         11.83152          39.83224           1.010868
         11.84094          39.35331          0.9676144
         11.85036          39.89009          0.9021289
         11.85977          39.66358          0.9190689
         11.86919          41.03222          0.9776222
         11.87860          42.15155          0.8957999
         11.88802          41.98578          0.8003837
         11.89744          41.41186          0.7756696
         11.90685          42.37146          0.8779678
         11.91626          43.27930          0.8317101
         11.92568          44.55626          0.8531209
         11.93509          43.91681          0.7783135
         11.94450          44.21923          0.8790507
         11.95392          44.94604          0.8334011
         11.96333          46.18728          0.7385695
         11.97274          45.39539          0.7828975
         11.98215          47.30552          0.8314314
         11.99156          47.80278          0.8086262
         12.00097          46.64080          0.8244133
         12.01038          46.80908          0.8578829
         12.01979          47.87212          0.8827112
         12.02920          46.86218          0.8325279
         12.03861          47.06256          0.8325796
         12.04802          46.24972          0.7850590
         12.05743          46.73952          0.8563807
         12.06683          46.07037          0.9107347
         12.07624          43.80186          0.8042417
         12.08565          45.17257          0.7936434
         12.09505          44.99760          0.8569438
         12.10446          45.12964          0.8789737
         12.11386          45.01805          0.8793098
         12.12327          44.77588          0.8256606
         12.13268          44.92168          0.8398821
         12.14208          44.60102          0.9378660
         12.15148          43.42533          0.9855111
         12.16089          43.47606           1.024492
         12.17029          42.77593          0.9860671
         12.17969          43.36275           1.004522
         12.18909          43.97466           1.026670
         12.19850          42.88153          0.9828775
         12.20790          44.04922          0.9790321
         12.21730          42.64193          0.9927633
         12.22670          41.16417           1.089564
         12.23610          41.00722           1.102103
         12.24550          40.99888           1.115786
         12.25490          43.00641           1.121912
         12.26430          42.77253           1.150944
         12.27370          43.01112           1.303927
         12.28310          44.02560           1.140509
         12.29249          46.10310           1.124787
         12.30189          55.80445           1.457355
         12.31129          67.17027           1.355849
         12.32068          58.50243           1.582608
         12.33008          47.08548           1.292122
         12.33948          45.24181           1.013630
         12.34887          47.06873           1.041823
         12.35827          45.07643           1.067716
         12.36766          46.39841          0.9145293
         12.37706          46.65425           1.043224
         12.38645          48.77804           1.086420
         12.39584          47.52996          0.8765672
         12.40524          46.67709          0.8378813
         12.41463          47.63952          0.8340042
         12.42402          47.88560          0.9088888
         12.43341          46.98063           1.062987
         12.44280          48.44397           1.038310
         12.45219          50.69850           1.062864
         12.46159          51.95229           1.120677
         12.47097          50.02002           1.249375
         12.48036          51.11731           1.622074
         12.48975          50.15113           1.584201
         12.49905          50.89027           1.001434
         12.50904          50.76866          0.9430918
         12.51904          52.53601          0.9307985
         12.52903          54.07312          0.8542261
         12.53903          52.90633          0.8739509
         12.54902          55.14853          0.9001045
         12.55901          54.45107          0.8943918
         12.56901          54.60436          0.8069328
         12.57900          57.23218          0.8256499
         12.58899          54.99300          0.8969759
         12.59898          55.97269          0.8863676
         12.60898          59.05766          0.7942915
         12.61897          58.67342          0.8651205
         12.62896          59.68977          0.8181633
         12.63895          60.64645          0.7698875
         12.64894          61.35785          0.8331543
         12.65893          59.67944          0.8206131
         12.66891          59.22203          0.7574215
         12.67890          59.67809          0.8398188
         12.68889          62.78306          0.7337818
         12.69888          60.75537          0.7330927
         12.70887          61.14054          0.7706293
         12.71885          61.84027          0.8009836
         12.72884          62.72608          0.8541836
         12.73882          64.81489          0.8679564
         12.74881          64.42113          0.7619417
         12.75879          63.49445          0.7871349
         12.76878          63.63935          0.8087680
         12.77876          62.71552          0.8294578
         12.78874          61.99858          0.8663670
         12.79873          62.33197          0.8612228
         12.80871          63.16676          0.8412009
         12.81869          63.77345          0.8598589
         12.82867          77.92955          0.8175321
         12.83865          141.8944          0.8171881
         12.84863          204.9033          0.8657796
         12.85861          130.6915          0.8708954
         12.86859          68.92599          0.9066481
         12.87857          53.81316          0.8410817
         12.88855          48.67744          0.9238734
         12.89853          47.03471          0.9129437
         12.90851          46.68085          0.9139551
         12.91848          45.63390          0.8934854
         12.92846          43.80096          0.8955587
         12.93844          42.02355          0.9901775
         12.94841          41.61026           1.074377
         12.95839          42.26181           1.046966
         12.96836          42.03384           1.111161
         12.97834          39.80593           1.023333
         12.98831          39.92266           1.179752
         12.99829          40.77987           1.121103
         13.00826          38.92571           1.094267
         13.01823          38.45249           1.113412
         13.02820          38.44751           1.103434
         13.03818          40.95094           1.167212
         13.04815          38.62391           1.196633
         13.05812          38.49920           1.240481
         13.06809          38.61486           1.277625
         13.07806          38.29288           1.580487
         13.08803          40.62526           1.387329
         13.09800          39.19930           1.471494
         13.10797          39.14138           1.393816
         13.11793          40.71938           1.430852
         13.12790          37.33714           1.650534
